Temperature (K),B-Field (Gauss),sample I AB,sample I AD,sample I AC,sample I BD,sample I -AB,sample I -AD,sample I -AC,sample I -BD,Voltage DC,Voltage BC,Voltage BD,Voltage AC,Voltage -DC,Voltage -BC,Voltage -BD,Voltage -AC
96.06,-4605,0.00001,0.00001,0.00001,0.00001,-0.00001,-0.00001,-0.00001,-0.00001,0.0025407,0.0029092,0.0097019,0.0090346,-0.0024111,-0.0035388,-0.0108893,-0.0096526
97.355,-30.2900009,0.00001,0.00001,0.00001,0.00001,-0.00001,-0.00001,-0.00001,-0.00001,0.0017428,0.0017343,-0.0001528,-0.000542,-0.0016796,-0.0022819,-0.0008807,-0.0000957
98.555,4592,0.00001,0.00001,0.00001,0.00001,-0.00001,-0.00001,-0.00001,-0.00001,0.0027211,0.0026385,-0.0098124,-0.0106481,-0.0026018,-0.0031489,0.0087664,0.0099374
100.205,-4604,0.00001,0.00001,0.00001,0.00001,-0.00001,-0.00001,-0.00001,-0.00001,0.0027086,0.0031372,0.0097996,0.0090428,-0.0026042,-0.0037671,-0.0109672,-0.0096585
101.52,-30.0799999,0.00001,0.00001,0.00001,0.00001,-0.00001,-0.00001,-0.00001,-0.00001,0.001877,0.0019057,-0.0001207,-0.0005648,-0.0018349,-0.0024577,-0.0009033,-0.00007
102.83,4591,0.00001,0.00001,0.00001,0.00001,-0.00001,-0.00001,-0.00001,-0.00001,0.0029035,0.0028653,-0.0098066,-0.0107064,-0.0028108,-0.0033788,0.0087767,0.0100199
104.38,-4603,0.00001,0.00001,0.00001,0.00001,-0.00001,-0.00001,-0.00001,-0.00001,0.0028941,0.0033764,0.0098891,0.009054,-0.0028079,-0.0039958,-0.0110266,-0.0096527
105.65,-30.0100002,0.00001,0.00001,0.00001,0.00001,-0.00001,-0.00001,-0.00001,-0.00001,0.0020262,0.0020879,-0.0000884,-0.000587,-0.0019943,-0.0026419,-0.0009316,-0.0000339
107.01,4589,0.00001,0.00001,0.00001,0.00001,-0.00001,-0.00001,-0.00001,-0.00001,0.0030976,0.0031028,-0.0098005,-0.0107764,-0.0030195,-0.0036165,0.0087849,0.0101066
108.615,-4602,0.00001,0.00001,0.00001,0.00001,-0.00001,-0.00001,-0.00001,-0.00001,0.0030974,0.003627,0.0099727,0.0090606,-0.0030224,-0.0042412,-0.0110941,-0.0096459
110.045,-30.0400009,0.00001,0.00001,0.00001,0.00001,-0.00001,-0.00001,-0.00001,-0.00001,0.0021972,0.0022934,-0.0000493,-0.0006122,-0.0021725,-0.0028452,-0.0009559,-0.0000022
111.305,4587,0.00001,0.00001,0.00001,0.00001,-0.00001,-0.00001,-0.00001,-0.00001,0.0033111,0.0033565,-0.0097951,-0.0108431,-0.0032439,-0.0038739,0.0087858,0.0101863
112.83,-4601,0.00001,0.00001,0.00001,0.00001,-0.00001,-0.00001,-0.00001,-0.00001,0.0033095,0.0038895,0.010055,0.0090597,-0.00325,-0.0045022,-0.0111573,-0.0096418
114.185,-29.9599991,0.00001,0.00001,0.00001,0.00001,-0.00001,-0.00001,-0.00001,-0.00001,0.002366,0.0025054,-0.0000115,-0.0006408,-0.0023533,-0.0030525,-0.0009863,0.000031
115.425,4586,0.00001,0.00001,0.00001,0.00001,-0.00001,-0.00001,-0.00001,-0.00001,0.0035266,0.0036145,-0.0097857,-0.0109225,-0.0034781,-0.0041374,0.0087898,0.0102709
116.995,-4598,0.00001,0.00001,0.00001,0.00001,-0.00001,-0.00001,-0.00001,-0.00001,0.0035296,0.0041592,0.0101411,0.0090558,-0.0034837,-0.0047702,-0.0112303,-0.0096365
118.44,-29.9899998,0.00001,0.00001,0.00001,0.00001,-0.00001,-0.00001,-0.00001,-0.00001,0.0025533,0.0027254,0.0000261,-0.0006738,-0.0025488,-0.0032835,-0.0010202,0.0000652
119.74,4585,0.00001,0.00001,0.00001,0.00001,-0.00001,-0.00001,-0.00001,-0.00001,0.0037594,0.0038933,-0.0097811,-0.0110012,-0.0037192,-0.0044224,0.008782,0.0103554
121.275,-4598,0.00001,0.00001,0.00001,0.00001,-0.00001,-0.00001,-0.00001,-0.00001,0.0037709,0.0044589,0.010237,0.0090529,-0.0037277,-0.0050566,-0.011307,-0.0096274
122.56,-30.3400002,0.00001,0.00001,0.00001,0.00001,-0.00001,-0.00001,-0.00001,-0.00001,0.0027515,0.0029609,0.0000678,-0.0007046,-0.0027441,-0.0035134,-0.001057,0.0001057
123.825,4584,0.00001,0.00001,0.00001,0.00001,-0.00001,-0.00001,-0.00001,-0.00001,0.003991,0.0041696,-0.0097687,-0.0110774,-0.0039686,-0.0047129,0.0087708,0.010441
125.4,-4596,0.00001,0.00001,0.00001,0.00001,-0.00001,-0.00001,-0.00001,-0.00001,0.0040009,0.0047412,0.0103175,0.0090421,-0.0039815,-0.005352,-0.0113858,-0.0096179
126.83,-30,0.00001,0.00001,0.00001,0.00001,-0.00001,-0.00001,-0.00001,-0.00001,0.0029597,0.0032107,0.0001057,-0.0007433,-0.002966,-0.0037711,-0.0010926,0.0001488
128.09,4583,0.00001,0.00001,0.00001,0.00001,-0.00001,-0.00001,-0.00001,-0.00001,0.0042455,0.0044746,-0.0097509,-0.0111588,-0.0042278,-0.0050143,0.0087682,0.0105304
129.67,-4596,0.00001,0.00001,0.00001,0.00001,-0.00001,-0.00001,-0.00001,-0.00001,0.0042578,0.0050547,0.0104128,0.0090305,-0.0042471,-0.005666,-0.0114668,-0.009601
131.095,-30.1599998,0.00001,0.00001,0.00001,0.00001,-0.00001,-0.00001,-0.00001,-0.00001,0.0031749,0.0034738,0.0001546,-0.000781,-0.0031978,-0.0040388,-0.0011354,0.0001914
132.355,4582,0.00001,0.00001,0.00001,0.00001,-0.00001,-0.00001,-0.00001,-0.00001,0.0045077,0.004789,-0.0097351,-0.011242,-0.0045009,-0.0053312,0.0087567,0.0106275
133.965,-4594,0.00001,0.00001,0.00001,0.00001,-0.00001,-0.00001,-0.00001,-0.00001,0.0045196,0.0053789,0.010505,0.0090165,-0.0045274,-0.0059938,-0.0115562,-0.0095853
135.25,-30,0.00001,0.00001,0.00001,0.00001,-0.00001,-0.00001,-0.00001,-0.00001,0.0034036,0.0037452,0.0001953,-0.0008199,-0.0034301,-0.0043163,-0.0011784,0.0002402
136.535,4581,0.00001,0.00001,0.00001,0.00001,-0.00001,-0.00001,-0.00001,-0.00001,0.0047737,0.0051112,-0.009718,-0.0113232,-0.0047759,-0.0056575,0.0087482,0.0107213
138.245,-4595,0.00001,0.00001,0.00001,0.00001,-0.00001,-0.00001,-0.00001,-0.00001,0.0048,0.0057236,0.0106077,0.0090079,-0.0048076,-0.0063274,-0.0116419,-0.0095627
139.685,-30.2900009,0.00001,0.00001,0.00001,0.00001,-0.00001,-0.00001,-0.00001,-0.00001,0.0036565,0.004049,0.0002502,-0.0008613,-0.003688,-0.0046176,-0.0012188,0.0002973
141.075,4581,0.00001,0.00001,0.00001,0.00001,-0.00001,-0.00001,-0.00001,-0.00001,0.0050729,0.0054712,-0.0096985,-0.0114237,-0.0050868,-0.0060233,0.0087314,0.0108294
142.63,-4592,0.00001,0.00001,0.00001,0.00001,-0.00001,-0.00001,-0.00001,-0.00001,0.0050939,0.0060799,0.0107081,0.0089962,-0.0051175,-0.0066905,-0.0117375,-0.0095407
143.94,-30.1299992,0.00001,0.00001,0.00001,0.00001,-0.00001,-0.00001,-0.00001,-0.00001,0.0039107,0.0043601,0.0003047,-0.0009095,-0.0039524,-0.0049323,-0.0012689,0.0003453
145.36,4580,0.00001,0.00001,0.00001,0.00001,-0.00001,-0.00001,-0.00001,-0.00001,0.0053711,0.0058274,-0.0096796,-0.0115183,-0.0053974,-0.0063807,0.0087174,0.0109383
146.93,-4592,0.00001,0.00001,0.00001,0.00001,-0.00001,-0.00001,-0.00001,-0.00001,0.0053933,0.0064459,0.0108164,0.008981,-0.005425,-0.0070555,-0.0118377,-0.0095242
148.21,-30.2399998,0.00001,0.00001,0.00001,0.00001,-0.00001,-0.00001,-0.00001,-0.00001,0.0041912,0.0046894,0.0003598,-0.0009571,-0.0042295,-0.0052613,-0.0013208,0.0004015
149.64,4579,0.00001,0.00001,0.00001,0.00001,-0.00001,-0.00001,-0.00001,-0.00001,0.0056775,0.0061989,-0.0096584,-0.0116156,-0.0057142,-0.0067549,0.0087048,0.0110475
151.215,-4592,0.00001,0.00001,0.00001,0.00001,-0.00001,-0.00001,-0.00001,-0.00001,0.0057075,0.0068312,0.010932,0.0089748,-0.005742,-0.0074284,-0.0119334,-0.0095041
152.64,-29.9599991,0.00001,0.00001,0.00001,0.00001,-0.00001,-0.00001,-0.00001,-0.00001,0.0044817,0.0050465,0.0004228,-0.0010092,-0.0045303,-0.0056154,-0.0013768,0.0004574
153.925,4578,0.00001,0.00001,0.00001,0.00001,-0.00001,-0.00001,-0.00001,-0.00001,0.0060012,0.0065813,-0.0096433,-0.0117245,-0.0060438,-0.0071386,0.0086987,0.0111593
155.635,-4592,0.00001,0.00001,0.00001,0.00001,-0.00001,-0.00001,-0.00001,-0.00001,0.0060383,0.0072337,0.0110546,0.0089566,-0.0060868,-0.0078287,-0.0120368,-0.0094915
156.945,-29.9300003,0.00001,0.00001,0.00001,0.00001,-0.00001,-0.00001,-0.00001,-0.00001,0.0047791,0.005406,0.0004889,-0.0010674,-0.0048357,-0.0059603,-0.0014195,0.0005165
158.25,4578,0.00001,0.00001,0.00001,0.00001,-0.00001,-0.00001,-0.00001,-0.00001,0.0063212,0.0069762,-0.0096151,-0.0118424,-0.0063803,-0.0075225,0.0087016,0.011264
159.955,-4590,0.00001,0.00001,0.00001,0.00001,-0.00001,-0.00001,-0.00001,-0.00001,0.0063488,0.0076343,0.0111852,0.0089316,-0.0064271,-0.0082165,-0.0121278,-0.0094882
161.265,-30.1499996,0.00001,0.00001,0.00001,0.00001,-0.00001,-0.00001,-0.00001,-0.00001,0.0050562,0.0057637,0.0005666,-0.0011358,-0.0051552,-0.0063141,-0.0014503,0.000563
162.655,4577,0.00001,0.00001,0.00001,0.00001,-0.00001,-0.00001,-0.00001,-0.00001,0.0066337,0.0073835,-0.0095697,-0.0119621,-0.0067336,-0.0079136,0.0087171,0.0113727
164.245,-4590,0.00001,0.00001,0.00001,0.00001,-0.00001,-0.00001,-0.00001,-0.00001,0.0066516,0.0080356,0.0113382,0.0089093,-0.0067795,-0.0086034,-0.0122105,-0.0094865
165.65,-30.0599995,0.00001,0.00001,0.00001,0.00001,-0.00001,-0.00001,-0.00001,-0.00001,0.0053436,0.0061452,0.0006608,-0.001202,-0.0054928,-0.0066864,-0.0014824,0.0006142
166.97,4577,0.00001,0.00001,0.00001,0.00001,-0.00001,-0.00001,-0.00001,-0.00001,0.0069426,0.0077845,-0.009522,-0.0120841,-0.0071004,-0.0083054,0.0087419,0.0114956
168.65,-4590,0.00001,0.00001,0.00001,0.00001,-0.00001,-0.00001,-0.00001,-0.00001,0.00697,0.0084564,0.0114921,0.0089021,-0.0071659,-0.0090214,-0.0122976,-0.0094663
169.97,-30.0300007,0.00001,0.00001,0.00001,0.00001,-0.00001,-0.00001,-0.00001,-0.00001,0.0056334,0.0065252,0.0007601,-0.0012453,-0.0058521,-0.0070736,-0.0015087,0.0006945
171.375,4576,0.00001,0.00001,0.00001,0.00001,-0.00001,-0.00001,-0.00001,-0.00001,0.0072616,0.0082004,-0.0094852,-0.0121888,-0.0075075,-0.0087492,0.0087565,0.0116483
172.935,-4589,0.00001,0.00001,0.00001,0.00001,-0.00001,-0.00001,-0.00001,-0.00001,0.007288,0.008875,0.0116545,0.0089279,-0.0075591,-0.0094626,-0.0123982,-0.0094274
174.24,-30.0499992,0.00001,0.00001,0.00001,0.00001,-0.00001,-0.00001,-0.00001,-0.00001,0.0059343,0.0069192,0.0008435,-0.0012858,-0.0062261,-0.0074936,-0.0015585,0.0007849
175.645,4576,0.00001,0.00001,0.00001,0.00001,-0.00001,-0.00001,-0.00001,-0.00001,0.0076063,0.0086323,-0.0094597,-0.0123029,-0.0078971,-0.0091956,0.0087641,0.0117997
177.225,-4589,0.00001,0.00001,0.00001,0.00001,-0.00001,-0.00001,-0.00001,-0.00001,0.0076478,0.0093235,0.0117992,0.008922,-0.0079448,-0.0099082,-0.0125183,-0.0094135
178.61,-30.0499992,0.00001,0.00001,0.00001,0.00001,-0.00001,-0.00001,-0.00001,-0.00001,0.0062967,0.0073632,0.000925,-0.0013541,-0.0066008,-0.0079271,-0.0016154,0.0008533
179.93,4577,0.00001,0.00001,0.00001,0.00001,-0.00001,-0.00001,-0.00001,-0.00001,0.0079821,0.0090838,-0.0094421,-0.0124446,-0.0082837,-0.0096428,0.0087648,0.0119372
181.54,-4589,0.00001,0.00001,0.00001,0.00001,-0.00001,-0.00001,-0.00001,-0.00001,0.0080248,0.0097866,0.0119479,0.0089129,-0.0083374,-0.0103703,-0.0126565,-0.0094062
182.95,-29.8600006,0.00001,0.00001,0.00001,0.00001,-0.00001,-0.00001,-0.00001,-0.00001,0.006672,0.0078102,0.0010013,-0.0014272,-0.0069761,-0.0083731,-0.0016843,0.0009231
184.32,4576,0.00001,0.00001,0.00001,0.00001,-0.00001,-0.00001,-0.00001,-0.00001,0.0083799,0.0095655,-0.0094322,-0.0125919,-0.0086904,-0.0101185,0.0087608,0.0120854
185.9,-4589,0.00001,0.00001,0.00001,0.00001,-0.00001,-0.00001,-0.00001,-0.00001,0.0084208,0.0102779,0.0121079,0.0089048,-0.0087457,-0.0108538,-0.0127926,-0.0093966
187.31,-29.2999992,0.00001,0.00001,0.00001,0.00001,-0.00001,-0.00001,-0.00001,-0.00001,0.0070584,0.008282,0.0010828,-0.0015033,-0.0073723,-0.0088387,-0.0017534,0.0010031
188.605,4576,0.00001,0.00001,0.00001,0.00001,-0.00001,-0.00001,-0.00001,-0.00001,0.0087804,0.010043,-0.0094166,-0.0127334,-0.0090954,-0.0105973,0.0087632,0.0122362
190.22,-4588,0.00001,0.00001,0.00001,0.00001,-0.00001,-0.00001,-0.00001,-0.00001,0.0088325,0.0107679,0.0122594,0.0088968,-0.0091535,-0.0113375,-0.0129362,-0.0093881
191.625,-29.0100002,0.00001,0.00001,0.00001,0.00001,-0.00001,-0.00001,-0.00001,-0.00001,0.0074533,0.0087512,0.0011605,-0.0015782,-0.0077719,-0.0093103,-0.0018225,0.0010798
192.945,4576,0.00001,0.00001,0.00001,0.00001,-0.00001,-0.00001,-0.00001,-0.00001,0.0091903,0.0105355,-0.0094061,-0.0128843,-0.0095148,-0.0110857,0.0087606,0.0123858
194.61,-4588,0.00001,0.00001,0.00001,0.00001,-0.00001,-0.00001,-0.00001,-0.00001,0.0092629,0.0112879,0.0124221,0.0088889,-0.0095906,-0.0118522,-0.0130869,-0.0093794
195.965,-28.8400002,0.00001,0.00001,0.00001,0.00001,-0.00001,-0.00001,-0.00001,-0.00001,0.0078607,0.0092502,0.0012491,-0.0016548,-0.0081956,-0.0098075,-0.0018986,0.0011579
197.29,4576,0.00001,0.00001,0.00001,0.00001,-0.00001,-0.00001,-0.00001,-0.00001,0.0096089,0.0110431,-0.009386,-0.0130385,-0.0099534,-0.0115909,0.0087657,0.0125443
199.13,-4588,0.00001,0.00001,0.00001,0.00001,-0.00001,-0.00001,-0.00001,-0.00001,0.0096902,0.0118177,0.0125848,0.0088784,-0.0100498,-0.0123866,-0.0132323,-0.0093689
200.7,-28.9300003,0.00001,0.00001,0.00001,0.00001,-0.00001,-0.00001,-0.00001,-0.00001,0.0083038,0.0097939,0.001342,-0.0017376,-0.008662,-0.0103432,-0.0019673,0.0012483
202.25,4576,0.00001,0.00001,0.00001,0.00001,-0.00001,-0.00001,-0.00001,-0.00001,0.0100953,0.0116301,-0.0093638,-0.0132063,-0.0104559,-0.0121709,0.008764,0.0127208
204.05,-4589,0.00001,0.00001,0.00001,0.00001,-0.00001,-0.00001,-0.00001,-0.00001,0.010185,0.0124138,0.0127681,0.0088645,-0.0105524,-0.0129715,-0.0133898,-0.009352
205.6,-28.7900009,0.00001,0.00001,0.00001,0.00001,-0.00001,-0.00001,-0.00001,-0.00001,0.0087921,0.0103762,0.0014439,-0.0018289,-0.0091544,-0.0109163,-0.002047,0.0013449
207.1,4576,0.00001,0.00001,0.00001,0.00001,-0.00001,-0.00001,-0.00001,-0.00001,0.0105862,0.01222,-0.0093379,-0.0133663,-0.0109577,-0.0127494,0.0087556,0.0128858
208.85,-4588,0.00001,0.00001,0.00001,0.00001,-0.00001,-0.00001,-0.00001,-0.00001,0.0106787,0.0130091,0.0129412,0.0088529,-0.0110537,-0.0135559,-0.013533,-0.0093261
210.35,-28.5,0.00001,0.00001,0.00001,0.00001,-0.00001,-0.00001,-0.00001,-0.00001,0.0092754,0.0109612,0.001549,-0.0019154,-0.0096518,-0.0114956,-0.0021238,0.0014378
211.85,4576,0.00001,0.00001,0.00001,0.00001,-0.00001,-0.00001,-0.00001,-0.00001,0.0110793,0.0128065,-0.0093015,-0.0135173,-0.0114588,-0.0133287,0.0087423,0.0130394
213.75,-4588,0.00001,0.00001,0.00001,0.00001,-0.00001,-0.00001,-0.00001,-0.00001,0.0111795,0.0136205,0.0131024,0.0088273,-0.0115758,-0.0141619,-0.0136763,-0.0092917
215.15,-28.7199993,0.00001,0.00001,0.00001,0.00001,-0.00001,-0.00001,-0.00001,-0.00001,0.0097733,0.0115657,0.0016541,-0.0020042,-0.0101771,-0.0120919,-0.0022079,0.0015302
216.7,4575,0.00001,0.00001,0.00001,0.00001,-0.00001,-0.00001,-0.00001,-0.00001,0.0115756,0.0134048,-0.0092529,-0.0136595,-0.0119791,-0.0139201,0.0087166,0.013177
218.65,-4588,0.00001,0.00001,0.00001,0.00001,-0.00001,-0.00001,-0.00001,-0.00001,0.0116829,0.0142268,0.0132515,0.0087791,-0.0121086,-0.0147581,-0.0137876,-0.0092486
220.15,-28.75,0.00001,0.00001,0.00001,0.00001,-0.00001,-0.00001,-0.00001,-0.00001,0.0102799,0.0121772,0.0017623,-0.0020889,-0.0106997,-0.0126925,-0.0022714,0.0016267
221.6,4576,0.00001,0.00001,0.00001,0.00001,-0.00001,-0.00001,-0.00001,-0.00001,0.0120625,0.0140011,-0.0091726,-0.01376,-0.0125146,-0.0145118,0.0086809,0.0133114
223.4,-4588,0.00001,0.00001,0.00001,0.00001,-0.00001,-0.00001,-0.00001,-0.00001,0.0121194,0.0147951,0.0134023,0.0087676,-0.0126586,-0.0153378,-0.0138289,-0.009132
224.9,-28.5599995,0.00001,0.00001,0.00001,0.00001,-0.00001,-0.00001,-0.00001,-0.00001,0.010712,0.012744,0.001893,-0.0021242,-0.0112492,-0.0132753,-0.0023127,0.0017462
226.4,4574,0.00001,0.00001,0.00001,0.00001,-0.00001,-0.00001,-0.00001,-0.00001,0.0125039,0.0145696,-0.0090346,-0.0137824,-0.0130363,-0.0150818,0.0086245,0.0134021
228.15,-4587,0.00001,0.00001,0.00001,0.00001,-0.00001,-0.00001,-0.00001,-0.00001,0.0126285,0.0153912,0.0134536,0.0086438,-0.0131523,-0.0159086,-0.0138611,-0.0090187
229.7,-29.8999996,0.00001,0.00001,0.00001,0.00001,-0.00001,-0.00001,-0.00001,-0.00001,0.0112092,0.013325,0.0019738,-0.0022098,-0.0117385,-0.0138435,-0.0023972,0.0018144
231.15,4575,0.00001,0.00001,0.00001,0.00001,-0.00001,-0.00001,-0.00001,-0.00001,0.0129727,0.015125,-0.0088739,-0.0137856,-0.0135029,-0.0156253,0.008451,0.0133612
232.95,-4587,0.00001,0.00001,0.00001,0.00001,-0.00001,-0.00001,-0.00001,-0.00001,0.0131023,0.0159276,0.0133876,0.0084242,-0.0136214,-0.0164303,-0.0137833,-0.0088014
234.45,-29.9200001,0.00001,0.00001,0.00001,0.00001,-0.00001,-0.00001,-0.00001,-0.00001,0.0116722,0.0138622,0.0020484,-0.0022928,-0.012187,-0.0143606,-0.0024645,0.0018874
235.85,4575,0.00001,0.00001,0.00001,0.00001,-0.00001,-0.00001,-0.00001,-0.00001,0.0133913,0.0156092,-0.0085852,-0.0136023,-0.0139018,-0.0160937,0.008145,0.0131722
237.4,-4587,0.00001,0.00001,0.00001,0.00001,-0.00001,-0.00001,-0.00001,-0.00001,0.0134731,0.0163276,0.0131438,0.0080841,-0.0139744,-0.0168081,-0.013523,-0.0084432
238.65,-30.0599995,0.00001,0.00001,0.00001,0.00001,-0.00001,-0.00001,-0.00001,-0.00001,0.0119952,0.0142257,0.0020873,-0.0023376,-0.0125053,-0.0147203,-0.002511,0.0019273
240.05,4574,0.00001,0.00001,0.00001,0.00001,-0.00001,-0.00001,-0.00001,-0.00001,0.0136569,0.0159352,-0.0081194,-0.01322,-0.0141483,-0.016392,0.0076574,0.0127229
241.85,-4586,0.00001,0.00001,0.00001,0.00001,-0.00001,-0.00001,-0.00001,-0.00001,0.0137011,0.0165531,0.0125943,0.0074516,-0.0141833,-0.0170024,-0.0129251,-0.0078063
243.3,-29.9899998,0.00001,0.00001,0.00001,0.00001,-0.00001,-0.00001,-0.00001,-0.00001,0.0121988,0.0144578,0.0021136,-0.002389,-0.012668,-0.0149039,-0.0025227,0.0019448
244.8,4575,0.00001,0.00001,0.00001,0.00001,-0.00001,-0.00001,-0.00001,-0.00001,0.0137364,0.0160567,-0.0072188,-0.0123327,-0.0141863,-0.0164728,0.006721,0.0117494
246.55,-4586,0.00001,0.00001,0.00001,0.00001,-0.00001,-0.00001,-0.00001,-0.00001,0.013665,0.0164463,0.0114632,0.0063299,-0.014104,-0.0168318,-0.0117291,-0.0066481
248.05,-29.8899994,0.00001,0.00001,0.00001,0.00001,-0.00001,-0.00001,-0.00001,-0.00001,0.0120808,0.0143216,0.0020919,-0.0023994,-0.0124972,-0.0146964,-0.0024856,0.0019185
249.55,4574,0.00001,0.00001,0.00001,0.00001,-0.00001,-0.00001,-0.00001,-0.00001,0.0134003,0.0157223,-0.0057565,-0.0107599,-0.0137961,-0.0160824,0.005217,0.0100855
251.45,-4587,0.00001,0.00001,0.00001,0.00001,-0.00001,-0.00001,-0.00001,-0.00001,0.0130932,0.0157138,0.009535,0.0045804,-0.0134987,-0.0160199,-0.0097275,-0.0048712
252.85,-29.0699997,0.00001,0.00001,0.00001,0.00001,-0.00001,-0.00001,-0.00001,-0.00001,0.0114615,0.0135956,0.0019874,-0.0023285,-0.0117958,-0.0138679,-0.0023587,0.0018117
254.4,4574,0.00001,0.00001,0.00001,0.00001,-0.00001,-0.00001,-0.00001,-0.00001,0.0124374,0.014674,-0.0037017,-0.0083976,-0.012763,-0.0149537,0.0031215,0.0076323
256.15,-4587,0.00001,0.00001,0.00001,0.00001,-0.00001,-0.00001,-0.00001,-0.00001,0.0118967,0.0142452,0.0070168,0.0024202,-0.0122515,-0.0144635,-0.0071596,-0.0027087
257.7,-28.5900002,0.00001,0.00001,0.00001,0.00001,-0.00001,-0.00001,-0.00001,-0.00001,0.0102023,0.0121387,0.0017686,-0.0021481,-0.0105434,-0.0123992,-0.0021342,0.0016116
259.15,4574,0.00001,0.00001,0.00001,0.00001,-0.00001,-0.00001,-0.00001,-0.00001,0.0108502,0.0128716,-0.001559,-0.0057225,-0.0111305,-0.0131132,0.0010118,0.0049615
260.9,-4586,0.00001,0.00001,0.00001,0.00001,-0.00001,-0.00001,-0.00001,-0.00001,0.0101242,0.0121011,0.0043647,0.0003904,-0.0104368,-0.0122689,-0.0045327,-0.0007361
262.4,-28.7000008,0.00001,0.00001,0.00001,0.00001,-0.00001,-0.00001,-0.00001,-0.00001,0.0085676,0.0102046,0.0014652,-0.0018761,-0.0088675,-0.0104209,-0.0018235,0.0013263
263.9,4574,0.00001,0.00001,0.00001,0.00001,-0.00001,-0.00001,-0.00001,-0.00001,0.0088909,0.0105813,0.0000845,-0.0033735,-0.0091545,-0.0108092,-0.0005734,0.0026714
265.65,-4587,0.00001,0.00001,0.00001,0.00001,-0.00001,-0.00001,-0.00001,-0.00001,0.0081104,0.0096676,0.0022267,-0.0009704,-0.0084119,-0.0098548,-0.0024763,0.0005628
267.15,-28.7000008,0.00001,0.00001,0.00001,0.00001,-0.00001,-0.00001,-0.00001,-0.00001,0.0068052,0.0081176,0.0011281,-0.001544,-0.0071108,-0.0083507,-0.0014859,0.0010184
268.65,4574,0.00001,0.00001,0.00001,0.00001,-0.00001,-0.00001,-0.00001,-0.00001,0.0069281,0.0082524,0.0009682,-0.0017353,-0.0071989,-0.0084982,-0.0013994,0.0011241
270.5,-4586,0.00001,0.00001,0.00001,0.00001,-0.00001,-0.00001,-0.00001,-0.00001,0.0062269,0.0074154,0.0008661,-0.0015914,-0.0065301,-0.0076129,-0.0011718,0.0011237
272.1,-29.1599998,0.00001,0.00001,0.00001,0.00001,-0.00001,-0.00001,-0.00001,-0.00001,0.0051691,0.0061544,0.0007969,-0.0012324,-0.0055006,-0.0064356,-0.0011699,0.0007161
273.65,4574,0.00001,0.00001,0.00001,0.00001,-0.00001,-0.00001,-0.00001,-0.00001,0.0051645,0.0061549,0.0012461,-0.0007709,-0.0054785,-0.0064426,-0.0016423,0.0002333
275.45,-4586,0.00001,0.00001,0.00001,0.00001,-0.00001,-0.00001,-0.00001,-0.00001,0.004621,0.0054902,0.0001182,-0.0016872,-0.0049654,-0.0057741,-0.0004923,0.0012049
277,-29.0900002,0.00001,0.00001,0.00001,0.00001,-0.00001,-0.00001,-0.00001,-0.00001,0.0038647,0.0045967,0.0005374,-0.0009724,-0.0042271,-0.0049244,-0.0009242,0.0004811
278.55,4574,0.00001,0.00001,0.00001,0.00001,-0.00001,-0.00001,-0.00001,-0.00001,0.0038295,0.0045641,0.0011717,-0.0003192,-0.0041871,-0.0048956,-0.0015584,-0.0001684
280.3,-4585,0.00001,0.00001,0.00001,0.00001,-0.00001,-0.00001,-0.00001,-0.00001,0.0034299,0.0040603,-0.00021,-0.0015383,-0.0037969,-0.0043923,-0.0001838,0.0010657
281.85,-30.1299992,0.00001,0.00001,0.00001,0.00001,-0.00001,-0.00001,-0.00001,-0.00001,0.0028859,0.003426,0.0003481,-0.0007751,-0.0032734,-0.0037918,-0.0007402,0.0003115
283.35,4574,0.00001,0.00001,0.00001,0.00001,-0.00001,-0.00001,-0.00001,-0.00001,0.0028383,0.0033849,0.0009772,-0.0001232,-0.0032287,-0.003749,-0.0013576,-0.000328
285.15,-4586,0.00001,0.00001,0.00001,0.00001,-0.00001,-0.00001,-0.00001,-0.00001,0.0025422,0.0030138,-0.0003458,-0.0013291,-0.0029439,-0.0033893,-0.0000729,0.0008578
286.65,-29.9500008,0.00001,0.00001,0.00001,0.00001,-0.00001,-0.00001,-0.00001,-0.00001,0.0021449,0.0025519,0.000204,-0.0006357,-0.0025635,-0.0029509,-0.0006104,0.0001762
288.2,4574,0.00001,0.00001,0.00001,0.00001,-0.00001,-0.00001,-0.00001,-0.00001,0.0021025,0.0025134,0.0007671,-0.0000604,-0.0025254,-0.0029161,-0.001157,-0.0003797
289.95,-4586,0.00001,0.00001,0.00001,0.00001,-0.00001,-0.00001,-0.00001,-0.00001,0.0018912,0.0022357,-0.0003859,-0.0011141,-0.0023067,-0.0026467,-0.0000408,0.0006617
291.4,-30.0599995,0.00001,0.00001,0.00001,0.00001,-0.00001,-0.00001,-0.00001,-0.00001,0.0016119,0.0019115,0.0000957,-0.0005256,-0.0020323,-0.0023283,-0.0005138,0.0000825
292.95,4573,0.00001,0.00001,0.00001,0.00001,-0.00001,-0.00001,-0.00001,-0.00001,0.0015575,0.0018685,0.0005685,-0.0000481,-0.002006,-0.0022992,-0.0009705,-0.0003795
294.75,-4586,0.00001,0.00001,0.00001,0.00001,-0.00001,-0.00001,-0.00001,-0.00001,0.0014037,0.0016644,-0.0003841,-0.0009309,-0.0018398,-0.0020997,-0.0000503,0.0004883
296.3,-30,0.00001,0.00001,0.00001,0.00001,-0.00001,-0.00001,-0.00001,-0.00001,0.0011938,0.0014267,0.0000267,-0.0004517,-0.0016375,-0.0018667,-0.0004491,0.0000183
297.75,4574,0.00001,0.00001,0.00001,0.00001,-0.00001,-0.00001,-0.00001,-0.00001,0.0011551,0.0013954,0.0004104,-0.0000541,-0.0016151,-0.0018387,-0.0008125,-0.0003567
299.65,-4585,0.00001,0.00001,0.00001,0.00001,-0.00001,-0.00001,-0.00001,-0.00001,0.0010332,0.0012248,-0.000366,-0.0007757,-0.001481,-0.001679,-0.0000664,0.0003462
301.15,-29.8099995,0.00001,0.00001,0.00001,0.00001,-0.00001,-0.00001,-0.00001,-0.00001,0.0008778,0.0010567,-0.0000306,-0.0003905,-0.0013299,-0.0015061,-0.0003887,-0.0000288
302.65,4573,0.00001,0.00001,0.00001,0.00001,-0.00001,-0.00001,-0.00001,-0.00001,0.0008469,0.0010273,0.0002831,-0.0000703,-0.0013149,-0.0014868,-0.0006867,-0.0003299
304.45,-4586,0.00001,0.00001,0.00001,0.00001,-0.00001,-0.00001,-0.00001,-0.00001,0.0007591,0.0008969,-0.0003474,-0.0006522,-0.0012149,-0.0013771,-0.0000972,0.0002304
306,-30.6399994,0.00001,0.00001,0.00001,0.00001,-0.00001,-0.00001,-0.00001,-0.00001,0.0006387,0.0007745,-0.0000719,-0.0003435,-0.001103,-0.001246,-0.000352,-0.0000636
307.5,4574,0.00001,0.00001,0.00001,0.00001,-0.00001,-0.00001,-0.00001,-0.00001,0.0006134,0.0007544,0.0001793,-0.0000867,-0.0010925,-0.0012246,-0.0005883,-0.0003008
309.4,-4586,0.00001,0.00001,0.00001,0.00001,-0.00001,-0.00001,-0.00001,-0.00001,0.0005448,0.0006585,-0.0003244,-0.0005597,-0.0010079,-0.0011397,-0.000121,0.0001447
310.9,-29.8999996,0.00001,0.00001,0.00001,0.00001,-0.00001,-0.00001,-0.00001,-0.00001,0.0004518,0.0005587,-0.0001043,-0.0003124,-0.0009294,-0.001042,-0.0003229,-0.0000886
312.4,4574,0.00001,0.00001,0.00001,0.00001,-0.00001,-0.00001,-0.00001,-0.00001,0.0004288,0.0005384,0.0000963,-0.0001008,-0.0009217,-0.0010309,-0.0005133,-0.0002785
314.35,-4585,0.00001,0.00001,0.00001,0.00001,-0.00001,-0.00001,-0.00001,-0.00001,0.0003822,0.0004591,-0.0003071,-0.0004779,-0.0008532,-0.0009596,-0.0001382,0.0000781
315.85,-30,0.00001,0.00001,0.00001,0.00001,-0.00001,-0.00001,-0.00001,-0.00001,0.0003136,0.0003927,-0.0001279,-0.0002802,-0.0007892,-0.0008822,-0.0003006,-0.000105
317.35,4573,0.00001,0.00001,0.00001,0.00001,-0.00001,-0.00001,-0.00001,-0.00001,0.0002946,0.0003775,0.0000341,-0.000112,-0.0007853,-0.0008709,-0.0004476,-0.0002509
319.35,-4586,0.00001,0.00001,0.00001,0.00001,-0.00001,-0.00001,-0.00001,-0.00001,0.0002563,0.0003139,-0.0002933,-0.000415,-0.0007334,-0.0008251,-0.0001606,0.0000332
321,-29.9099998,0.00001,0.00001,0.00001,0.00001,-0.00001,-0.00001,-0.00001,-0.00001,0.0001924,0.0002578,-0.00015,-0.0002611,-0.0006855,-0.000758,-0.0002854,-0.0001193
322.45,4574,0.00001,0.00001,0.00001,0.00001,-0.00001,-0.00001,-0.00001,-0.00001,0.0001783,0.0002467,-0.0000194,-0.0001177,-0.0006823,-0.0007508,-0.0003996,-0.0002319
324.3,-4585,0.00001,0.00001,0.00001,0.00001,-0.00001,-0.00001,-0.00001,-0.00001,0.0001553,0.0001969,-0.0002783,-0.0003614,-0.0006377,-0.0007141,-0.0001705,-0.0000081
325.85,-30.1000004,0.00001,0.00001,0.00001,0.00001,-0.00001,-0.00001,-0.00001,-0.00001,0.0001123,0.000158,-0.0001584,-0.0002358,-0.0006056,-0.0006673,-0.0002734,-0.0001252
327.4,4573,0.00001,0.00001,0.00001,0.00001,-0.00001,-0.00001,-0.00001,-0.00001,0.0000895,0.0001439,-0.0000595,-0.0001315,-0.000605,-0.0006597,-0.0003616,-0.0002184
329.2,-4585,0.00001,0.00001,0.00001,0.00001,-0.00001,-0.00001,-0.00001,-0.00001,0.0000798,0.0001063,-0.000269,-0.0003253,-0.0005656,-0.0006335,-0.0001835,-0.0000399
330.65,-30.1100006,0.00001,0.00001,0.00001,0.00001,-0.00001,-0.00001,-0.00001,-0.00001,0.0000411,0.0000721,-0.0001764,-0.0002215,-0.0005466,-0.0005999,-0.0002654,-0.0001339
332.2,4573,0.00001,0.00001,0.00001,0.00001,-0.00001,-0.00001,-0.00001,-0.00001,0.0000286,0.000066,-0.0000867,-0.0001353,-0.0005451,-0.0005882,-0.0003343,-0.0002045
334.05,-4585,0.00001,0.00001,0.00001,0.00001,-0.00001,-0.00001,-0.00001,-0.00001,0.0000171,0.0000331,-0.0002669,-0.0002961,-0.0005118,-0.0005736,-0.0001973,-0.0000664
335.6,-30.1100006,0.00001,0.00001,0.00001,0.00001,-0.00001,-0.00001,-0.00001,-0.00001,-0.000012,0.0000086,-0.0001838,-0.000211,-0.0004925,-0.0005408,-0.0002577,-0.00014
337.05,4572,0.00001,0.00001,0.00001,0.00001,-0.00001,-0.00001,-0.00001,-0.00001,-0.0000298,0.0000015,-0.0001124,-0.0001332,-0.0004992,-0.0005399,-0.0003148,-0.0001934
338.85,-4584,0.00001,0.00001,0.00001,0.00001,-0.00001,-0.00001,-0.00001,-0.00001,-0.0000351,-0.0000267,-0.000261,-0.0002644,-0.0004702,-0.0005253,-0.0002056,-0.000077
340.4,-29.8799992,0.00001,0.00001,0.00001,0.00001,-0.00001,-0.00001,-0.00001,-0.00001,-0.0000604,-0.0000443,-0.0001958,-0.0001977,-0.0004557,-0.0005001,-0.0002539,-0.0001357
341.9,4572,0.00001,0.00001,0.00001,0.00001,-0.00001,-0.00001,-0.00001,-0.00001,-0.0000715,-0.0000493,-0.0001355,-0.0001311,-0.0004602,-0.0004993,-0.0003031,-0.0001814
343.75,-4584,0.00001,0.00001,0.00001,0.00001,-0.00001,-0.00001,-0.00001,-0.00001,-0.0000716,-0.0000684,-0.0002577,-0.0002424,-0.0004319,-0.0004883,-0.0002125,-0.000092
345.25,-29.8700008,0.00001,0.00001,0.00001,0.00001,-0.00001,-0.00001,-0.00001,-0.00001,-0.0000928,-0.0000854,-0.0001976,-0.0001854,-0.0004223,-0.0004648,-0.000249,-0.0001321
346.8,4572,0.00001,0.00001,0.00001,0.00001,-0.00001,-0.00001,-0.00001,-0.00001,-0.0001048,-0.0000871,-0.0001484,-0.0001357,-0.0004276,-0.0004641,-0.0002879,-0.0001667
348.55,-4584,0.00001,0.00001,0.00001,0.00001,-0.00001,-0.00001,-0.00001,-0.00001,-0.0001063,-0.0001106,-0.0002514,-0.0002285,-0.000407,-0.0004584,-0.0002179,-0.0000977
350.1,-29.7700005,0.00001,0.00001,0.00001,0.00001,-0.00001,-0.00001,-0.00001,-0.00001,-0.0001214,-0.0001173,-0.0002042,-0.0001776,-0.0004023,-0.0004374,-0.0002464,-0.0001357
351.6,4572,0.00001,0.00001,0.00001,0.00001,-0.00001,-0.00001,-0.00001,-0.00001,-0.000133,-0.0001257,-0.0001596,-0.00013,-0.0004034,-0.0004366,-0.0002698,-0.0001555